File: input_files/expt_isotherm.txt
#Relative pressure	Amt. ads @STP [mmol/g]
0.0097	0.2149
0.0632	0.2713
0.1115	0.3006
0.1641	0.3303
0.2155	0.3586
0.2668	0.3882
0.3184	0.4191
0.3697	0.4512
0.4212	0.4835
0.4727	0.5152
0.5238	0.5470
0.5752	0.5803
0.6265	0.6164
0.6778	0.6573
0.7292	0.7042
0.7804	0.7592
0.8313	0.8266
0.8819	0.9163
0.9400	1.0858
0.9865	1.4089